BE,CPS
89.38,1511.07
89.36,1496.51
89.34,1469.83
89.32,1501.53
89.3,1492.82
89.28,1503.51
89.26,1493.25
89.24,1498.57
89.22,1512.77
89.2,1501.29
89.18,1512.15
89.16,1530.12
89.14,1511.03
89.12,1518.96
89.1,1509.14
89.08,1515.4
89.06,1528.81
89.04,1507.22
89.02,1514.65
89,1517.73
88.98,1527.17
88.96,1541.38
88.94,1549.91
88.92,1560.36
88.9,1557.23
88.88,1539.76
88.86,1531.08
88.84,1553.04
88.82,1542.59
88.8,1559.57
88.78,1577.44
88.76,1553.53
88.74,1568.35
88.72,1581.31
88.7,1586.83
88.68,1587.23
88.66,1574.84
88.64,1593.83
88.62,1590.05
88.6,1603.67
88.58,1594.65
88.56,1617.02
88.54,1621.84
88.52,1636.83
88.5,1623.62
88.48,1623.33
88.46,1636.47
88.44,1664.21
88.42,1659.38
88.4,1679.9
88.38,1687.44
88.36,1700.85
88.34,1710.94
88.32,1741.81
88.3,1751.51
88.28,1782.41
88.26,1781.58
88.24,1796.58
88.22,1870.62
88.2,1897.47
88.18,1900.91
88.16,1949.4
88.14,1988.14
88.12,1997.32
88.1,2043.48
88.08,2131.83
88.06,2189.71
88.04,2243.96
88.02,2303.76
88,2374.92
87.98,2472.89
87.96,2565.22
87.94,2643.42
87.92,2708.95
87.9,2798.42
87.88,2903.81
87.86,3010.78
87.84,3055.43
87.82,3182.33
87.8,3249.3
87.78,3319.94
87.76,3451.46
87.74,3512.32
87.72,3603.4
87.7,3669.11
87.68,3745.25
87.66,3832.69
87.64,3886.18
87.62,3935.27
87.6,3997.82
87.58,4045.63
87.56,4054.2
87.54,4084.41
87.52,4120.41
87.5,4088.83
87.48,4049.25
87.46,4090
87.44,4047.28
87.42,4017.78
87.4,3974.92
87.38,3871.36
87.36,3826.27
87.34,3791.9
87.32,3705.82
87.3,3651.87
87.28,3519.12
87.26,3443.49
87.24,3347.04
87.22,3268.06
87.2,3181.37
87.18,3080.1
87.16,2973.15
87.14,2899.85
87.12,2808.05
87.1,2713.58
87.08,2609.39
87.06,2540.76
87.04,2431.88
87.02,2379.81
87,2298.19
86.98,2262.51
86.96,2230.48
86.94,2138.88
86.92,2086.3
86.9,2063.13
86.88,2020.9
86.86,1977.21
86.84,1937.32
86.82,1872.28
86.8,1863.22
86.78,1836.68
86.76,1810.18
86.74,1761.65
86.72,1743.26
86.7,1771.9
86.68,1734.07
86.66,1695.49
86.64,1692.29
86.62,1696.34
86.6,1652.82
86.58,1646.64
86.56,1600.68
86.54,1616.97
86.52,1623.99
86.5,1615.49
86.48,1601.05
86.46,1609.74
86.44,1572.49
86.42,1585.07
86.4,1560.25
86.38,1561.56
86.36,1546.68
86.34,1523.81
86.32,1537.8
86.3,1548.05
86.28,1541.69
86.26,1526.64
86.24,1511.66
86.22,1503.01
86.2,1492.33
86.18,1501.3
86.16,1502.9
86.14,1482.16
86.12,1488.61
86.1,1495.23
86.08,1496.55
86.06,1463.12
86.04,1471.17
86.02,1454.13
86,1469.08
85.98,1476.4
85.96,1453
85.94,1449.17
85.92,1449.2
85.9,1470.61
85.88,1469.58
85.86,1439.15
85.84,1464.97
85.82,1453.29
85.8,1450.42
85.78,1458.02
85.76,1438.58
85.74,1451.97
85.72,1445.05
85.7,1463.34
85.68,1451.26
85.66,1446.47
85.64,1454.23
85.62,1458.14
85.6,1472.17
85.58,1447.68
85.56,1465.45
85.54,1444.29
85.52,1455.94
85.5,1438.67
85.48,1455.35
85.46,1464.23
85.44,1442.9
85.42,1436.58
85.4,1448.91
85.38,1472.21
85.36,1469.25
85.34,1469.35
85.32,1465.15
85.3,1448.17
85.28,1480.77
85.26,1487.62
85.24,1462.08
85.22,1471.02
85.2,1466.13
85.18,1487.48
85.16,1478.68
85.14,1475.76
85.12,1481.3
85.1,1457.78
85.08,1492.82
85.06,1489.99
85.04,1501.21
85.02,1513.17
85,1533.18
84.98,1527.07
84.96,1548.42
84.94,1551.54
84.92,1552.19
84.9,1540.4
84.88,1550.78
84.86,1586.11
84.84,1608.06
84.82,1601.91
84.8,1592.53
84.78,1614.91
84.76,1630.73
84.74,1649.15
84.72,1660.58
84.7,1690.45
84.68,1705.58
84.66,1683.09
84.64,1738.55
84.62,1781.47
84.6,1781.88
84.58,1837.17
84.56,1843.41
84.54,1895.33
84.52,1931.62
84.5,1979.27
84.48,2052.87
84.46,2111.65
84.44,2195.78
84.42,2257.57
84.4,2380.17
84.38,2450.07
84.36,2552.7
84.34,2665.45
84.32,2787.17
84.3,2895.84
84.28,3066.12
84.26,3193.95
84.24,3339.82
84.22,3539.82
84.2,3636.75
84.18,3787.07
84.16,3948.79
84.14,4065.72
84.12,4250.03
84.1,4404.24
84.08,4530.75
84.06,4643.86
84.04,4874.28
84.02,4980.78
84,5103.98
83.98,5212.6
83.96,5323.98
83.94,5476.68
83.92,5539.51
83.9,5610.44
83.88,5659.37
83.86,5656.74
83.84,5741.54
83.82,5789.71
83.8,5777.95
83.78,5727.11
83.76,5702.96
83.74,5645.45
83.72,5607.55
83.7,5512
83.68,5405.39
83.66,5286.48
83.64,5204.27
83.62,5057.98
83.6,4914.3
83.58,4716.75
83.56,4607.71
83.54,4376.55
83.52,4191.67
83.5,4043.98
83.48,3898.36
83.46,3745.25
83.44,3572.32
83.42,3399.28
83.4,3255.82
83.38,3061.57
83.36,2927.4
83.34,2814.29
83.32,2720.59
83.3,2572.98
83.28,2464.35
83.26,2384.94
83.24,2245.7
83.22,2171.21
83.2,2123.95
83.18,2053.16
83.16,2012.92
83.14,1959.51
83.12,1922.13
83.1,1870.84
83.08,1838.31
83.06,1777.91
83.04,1759.5
83.02,1709.75
83,1674.31
82.98,1637.52
82.96,1612.51
82.94,1600.84
82.92,1597.72
82.9,1548.7
82.88,1542.58
82.86,1510.27
82.84,1481.63
82.82,1478.2
82.8,1461.78
82.78,1462.83
82.76,1418.41
82.74,1414.19
82.72,1395.93
82.7,1395.58
82.68,1377.89
82.66,1367.03
82.64,1363.53
82.62,1341.19
82.6,1340.18
82.58,1338.45
82.56,1338.07
82.54,1325.78
82.52,1305.72
82.5,1294.81
82.48,1303.46
82.46,1274.56
82.44,1283.88
82.42,1278.31
82.4,1257.16
82.38,1285.96
82.36,1278.73
82.34,1248.05
82.32,1242.9
82.3,1249.51
82.28,1240.94
82.26,1220.6
82.24,1254.42
82.22,1240.92
82.2,1227.94
82.18,1217.73
82.16,1205.34
82.14,1204.32
82.12,1207.04
82.1,1205.23
82.08,1188.05
82.06,1202.72
82.04,1215.83
82.02,1181.17
82,1177.85
81.98,1171.9
81.96,1175.5
81.94,1148.7
81.92,1172.42
81.9,1165.87
81.88,1165.63
81.86,1167.08
81.84,1164.92
81.82,1156.12
81.8,1148.22
81.78,1138.85
81.76,1162.63
81.74,1141.18
81.72,1161.61
81.7,1171.08
81.68,1134.98
81.66,1134.51
81.64,1131.78
81.62,1116.35
81.6,1123.92
81.58,1138.73
81.56,1136.55
